,Wavelength[nm],Average
0,320.469,7.75
1,323.166,0.752577
2,325.861,1.348485
3,328.553,0.781818
4,331.243,1.174603
5,333.93,0.48913
6,336.615,0.393443
7,339.297,0.962025
8,341.976,0.78481
9,344.653,0.922222
10,347.327,0.572917
11,349.998,0.54717
12,352.666,0.694444
13,355.331,1.0
14,357.994,0.64
15,360.653,0.485714
16,363.309,0.611111
17,365.962,0.614458
18,368.612,0.716216
19,371.259,0.896907
20,373.903,0.964912
21,376.543,0.403509
22,379.18,0.898876
23,381.813,1.050847
24,384.443,0.644444
25,387.07,0.983051
26,389.693,0.689189
27,392.313,1.057692
28,394.929,0.805195
29,397.541,0.829268
30,400.15,0.955556
31,402.755,0.49505
32,405.356,0.408163
33,407.954,0.734513
34,410.547,0.721311
35,413.137,0.696429
36,415.723,0.544304
37,418.305,0.581395
38,420.883,0.648536
39,423.457,0.637931
40,426.027,0.524664
41,428.593,0.617544
42,431.154,0.439773
43,433.712,0.490987
44,436.265,0.505192
45,438.814,0.477273
46,441.359,0.498925
47,443.9,0.498277
48,446.436,0.49721
49,448.967,0.497765
50,451.495,0.494539
51,454.018,0.493258
52,456.536,0.488383
53,459.05,0.497633
54,461.559,0.488216
55,464.064,0.501434
56,466.564,0.509308
57,469.06,0.504669
58,471.551,0.511152
59,474.037,0.504442
60,476.518,0.521945
61,478.995,0.534055
62,481.467,0.532728
63,483.934,0.534014
64,486.396,0.532995
65,488.853,0.543049
66,491.305,0.537749
67,493.753,0.540521
68,496.195,0.549128
69,498.632,0.549163
70,501.065,0.559194
71,503.492,0.563796
72,505.914,0.572099
73,508.332,0.571393
74,510.743,0.587869
75,513.15,0.586244
76,515.552,0.604781
77,517.948,0.600791
78,520.339,0.608796
79,522.725,0.62002
80,525.106,0.620518
81,527.481,0.619892
82,529.851,0.632132
83,532.216,0.627278
84,534.575,0.629574
85,536.929,0.625619
86,539.277,0.633409
87,541.62,0.631253
88,543.957,0.634382
89,546.289,0.633557
90,548.616,0.629186
91,550.936,0.636398
92,553.252,0.625349
93,555.561,0.629094
94,557.865,0.631234
95,560.164,0.640776
96,562.457,0.642904
97,564.744,0.645474
98,567.025,0.656695
99,569.301,0.651446
100,571.571,0.657841
101,573.835,0.654957
102,576.093,0.659896
103,578.346,0.660922
104,580.593,0.661327
105,582.834,0.665575
106,585.069,0.672972
107,587.299,0.680173
108,589.522,0.678915
109,591.74,0.685251
110,593.952,0.689661
111,596.158,0.683366
112,598.358,0.678308
113,600.551,0.682568
114,602.739,0.671613
115,604.922,0.658787
116,607.098,0.649114
117,609.268,0.648689
118,611.432,0.638801
119,613.59,0.631812
120,615.742,0.628185
121,617.887,0.632506
122,620.027,0.628246
123,622.161,0.62877
124,624.289,0.633715
125,626.41,0.622861
126,628.526,0.617957
127,630.635,0.618272
128,632.738,0.619732
129,634.835,0.612987
130,636.926,0.618284
131,639.011,0.602707
132,641.089,0.607871
133,643.162,0.605353
134,645.228,0.610802
135,647.288,0.610798
136,649.341,0.608042
137,651.389,0.616603
138,653.43,0.61352
139,655.465,0.611983
140,657.494,0.625563
141,659.516,0.616429
142,661.532,0.626148
143,663.542,0.616086
144,665.546,0.62418
145,667.543,0.619367
146,669.535,0.634404
147,671.519,0.626151
148,673.498,0.640574
149,675.47,0.630892
150,677.436,0.624717
151,679.396,0.61779
152,681.349,0.648631
153,683.296,0.638533
154,685.236,0.649215
155,687.171,0.669091
156,689.099,0.638889
157,691.02,0.638581
158,692.935,0.653269
159,694.844,0.667187
160,696.747,0.638034
161,698.643,0.651873
162,700.533,0.657356
163,702.416,0.656992
164,704.293,0.6681
165,706.164,0.683721
166,708.029,0.673275
167,709.887,0.66838
168,711.738,0.706215
169,713.584,0.685801
170,715.423,0.703905
171,717.255,0.61547
172,719.082,0.736641
173,720.901,0.704875
174,722.715,0.619946
175,724.522,0.626207
176,726.323,0.717042
177,728.117,0.724522
178,729.905,0.711504
179,731.687,0.645038
180,733.462,0.705394
181,735.232,0.795964
182,736.994,0.72093
183,738.751,0.612009
184,740.501,0.716381
185,742.244,0.678392
186,743.982,0.693694
187,745.713,0.771015
188,747.437,0.675159
189,749.156,0.602041
190,750.868,0.638298
191,752.573,0.691729
192,754.273,0.690196
193,755.966,0.682819
194,757.653,0.59633
195,759.333,0.67757
196,761.008,0.645933
197,762.676,0.95977
198,764.337,0.946309
199,765.993,0.813793
200,767.642,0.66875
201,769.285,0.79845
202,770.922,0.737589
203,772.552,0.596386
204,774.176,0.66443
205,775.795,0.738462
206,777.406,0.859649
207,779.012,0.951219
208,780.611,0.614286
209,782.205,0.936508
210,783.792,0.642276
211,785.373,0.490909
212,786.947,1.073171
213,788.516,0.865854
214,790.078,1.049383
215,791.635,0.857143
216,793.185,0.761194
217,794.729,0.959184
218,796.267,0.53271
219,797.799,1.061538
220,799.325,0.430556
221,800.844,0.333333
222,802.358,0.747126
223,803.866,0.6625
224,805.368,1.203704
225,806.863,0.59633
226,808.353,0.623377
227,809.836,1.575758
228,811.314,0.745763
229,812.786,0.67033
230,814.252,0.970149
231,815.711,1.181818
232,817.165,0.813559
233,818.613,0.432099
234,820.055,0.428571
235,821.491,1.048193
236,822.922,0.744444
237,824.346,1.152778
238,825.765,1.256098
239,827.178,1.041667
240,828.585,0.890244
241,829.986,1.074074
242,831.381,0.97561
243,832.771,0.958333
244,834.155,0.764706
245,835.533,0.794872
246,836.906,1.0625
247,838.272,0.695122
248,839.633,0.746269
249,840.989,1.082353
250,842.339,0.811111
251,843.683,0.340206
252,845.021,0.875
253,846.354,0.542373
254,847.682,0.710843
255,849.004,1.697674
256,850.32,0.903226
257,851.631,1.181818
258,852.936,1.274194
259,854.236,0.584416
260,855.53,1.14
261,856.819,0.8
262,858.102,0.27381
263,859.38,0.516667
264,860.653,0.857143
265,861.92,0.9
266,863.182,1.061224
267,864.439,0.680851
268,865.69,0.565217
269,866.936,0.404762
270,868.177,0.910256
271,869.412,1.061538
272,870.642,0.670103
273,871.867,0.707692
274,873.087,0.071429
275,874.302,1.394737
276,875.512,0.555556
277,876.716,0.610169
278,877.916,1.0
279,879.11,0.525
280,880.299,0.414634
281,881.483,0.833333
282,882.663,0.794872
283,883.837,1.166667
284,885.006,3.894737
285,886.17,0.897436
286,887.33,0.560606
287,888.484,0.642857
