,Wavelength[nm],Average
0,320.469,0.5
1,323.166,0.226804
2,325.861,0.712121
3,328.553,0.4
4,331.243,0.857143
5,333.93,0.347826
6,336.615,0.172131
7,339.297,0.341772
8,341.976,0.658228
9,344.653,0.644444
10,347.327,0.458333
11,349.998,0.188679
12,352.666,0.5
13,355.331,-0.014085
14,357.994,0.68
15,360.653,0.271429
16,363.309,0.388889
17,365.962,0.53012
18,368.612,0.162162
19,371.259,0.041237
20,373.903,0.315789
21,376.543,0.561404
22,379.18,0.314607
23,381.813,0.423729
24,384.443,0.911111
25,387.07,0.474576
26,389.693,0.351351
27,392.313,0.403846
28,394.929,0.428571
29,397.541,0.04878
30,400.15,0.466667
31,402.755,0.346535
32,405.356,0.540816
33,407.954,0.362832
34,410.547,0.262295
35,413.137,0.5625
36,415.723,0.348101
37,418.305,0.569767
38,420.883,0.39749
39,423.457,0.510345
40,426.027,0.517937
41,428.593,0.47193
42,431.154,0.454545
43,433.712,0.533047
44,436.265,0.540623
45,438.814,0.541084
46,441.359,0.544393
47,443.9,0.544574
48,446.436,0.550217
49,448.967,0.555887
50,451.495,0.552487
51,454.018,0.557979
52,456.536,0.554594
53,459.05,0.57505
54,461.559,0.570924
55,464.064,0.583605
56,466.564,0.587001
57,469.06,0.591124
58,471.551,0.594424
59,474.037,0.603116
60,476.518,0.606768
61,478.995,0.606938
62,481.467,0.611795
63,483.934,0.613703
64,486.396,0.627221
65,488.853,0.61913
66,491.305,0.609957
67,493.753,0.619548
68,496.195,0.625266
69,498.632,0.635332
70,501.065,0.644306
71,503.492,0.637827
72,505.914,0.643881
73,508.332,0.649064
74,510.743,0.652062
75,513.15,0.665586
76,515.552,0.671265
77,517.948,0.671937
78,520.339,0.670341
79,522.725,0.690554
80,525.106,0.686366
81,527.481,0.693405
82,529.851,0.700536
83,532.216,0.698258
84,534.575,0.695704
85,536.929,0.70393
86,539.277,0.696693
87,541.62,0.706898
88,543.957,0.701457
89,546.289,0.721447
90,548.616,0.709729
91,550.936,0.712429
92,553.252,0.710061
93,555.561,0.711105
94,557.865,0.717122
95,560.164,0.721072
96,562.457,0.728693
97,564.744,0.729773
98,567.025,0.735208
99,569.301,0.727987
100,571.571,0.726646
101,573.835,0.739705
102,576.093,0.749954
103,578.346,0.75023
104,580.593,0.753383
105,582.834,0.754889
106,585.069,0.759913
107,587.299,0.769876
108,589.522,0.77666
109,591.74,0.767417
110,593.952,0.766807
111,596.158,0.76531
112,598.358,0.753304
113,600.551,0.760544
114,602.739,0.752382
115,604.922,0.739819
116,607.098,0.727812
117,609.268,0.735297
118,611.432,0.730142
119,613.59,0.72792
120,615.742,0.723164
121,617.887,0.726349
122,620.027,0.736002
123,622.161,0.72279
124,624.289,0.733554
125,626.41,0.733111
126,628.526,0.721759
127,630.635,0.724048
128,632.738,0.734594
129,634.835,0.721009
130,636.926,0.738713
131,639.011,0.724507
132,641.089,0.727143
133,643.162,0.733159
134,645.228,0.735757
135,647.288,0.728942
136,649.341,0.734969
137,651.389,0.743992
138,653.43,0.752424
139,655.465,0.741775
140,657.494,0.762234
141,659.516,0.747192
142,661.532,0.747703
143,663.542,0.746044
144,665.546,0.752635
145,667.543,0.763572
146,669.535,0.770043
147,671.519,0.755251
148,673.498,0.760131
149,675.47,0.764048
150,677.436,0.764989
151,679.396,0.757438
152,681.349,0.764016
153,683.296,0.778277
154,685.236,0.778609
155,687.171,0.791515
156,689.099,0.767949
157,691.02,0.76541
158,692.935,0.771429
159,694.844,0.793032
160,696.747,0.780659
161,698.643,0.776945
162,700.533,0.760397
163,702.416,0.8219
164,704.293,0.802151
165,706.164,0.825581
166,708.029,0.762094
167,709.887,0.742074
168,711.738,0.768362
169,713.584,0.796576
170,715.423,0.812364
171,717.255,0.785635
172,719.082,0.896947
173,720.901,0.826087
174,722.715,0.747978
175,724.522,0.772414
176,726.323,0.79582
177,728.117,0.66879
178,729.905,0.785841
179,731.687,0.791985
180,733.462,0.873444
181,735.232,0.807175
182,736.994,0.74186
183,738.751,0.769053
184,740.501,0.753056
185,742.244,0.713568
186,743.982,0.735736
187,745.713,0.675362
188,747.437,0.649682
189,749.156,0.717687
190,750.868,0.702128
191,752.573,0.781955
192,754.273,0.678431
193,755.966,0.69163
194,757.653,0.811927
195,759.333,0.785047
196,761.008,0.69378
197,762.676,0.678161
198,764.337,0.838926
199,765.993,0.572414
200,767.642,0.58125
201,769.285,0.821705
202,770.922,0.425532
203,772.552,0.590361
204,774.176,0.42953
205,775.795,0.423077
206,777.406,0.824561
207,779.012,0.569106
208,780.611,0.25
209,782.205,0.507937
210,783.792,0.284553
211,785.373,0.572727
212,786.947,0.341463
213,788.516,0.682927
214,790.078,0.54321
215,791.635,0.771429
216,793.185,0.38806
217,794.729,0.795918
218,796.267,0.271028
219,797.799,0.446154
220,799.325,0.555556
221,800.844,0.613333
222,802.358,0.229885
223,803.866,0.3375
224,805.368,0.851852
225,806.863,0.302752
226,808.353,0.662338
227,809.836,0.424242
228,811.314,0.423729
229,812.786,0.428571
230,814.252,0.537313
231,815.711,0.618182
232,817.165,0.779661
233,818.613,0.851852
234,820.055,0.67033
235,821.491,0.819277
236,822.922,0.577778
237,824.346,0.375
238,825.765,0.731707
239,827.178,1.020833
240,828.585,0.597561
241,829.986,0.555556
242,831.381,0.585366
243,832.771,0.541667
244,834.155,0.388235
245,835.533,0.448718
246,836.906,0.225
247,838.272,0.402439
248,839.633,0.820895
249,840.989,0.635294
250,842.339,0.344444
251,843.683,0.391753
252,845.021,0.5
253,846.354,0.762712
254,847.682,0.710843
255,849.004,0.767442
256,850.32,0.725806
257,851.631,0.227273
258,852.936,0.129032
259,854.236,0.519481
260,855.53,0.18
261,856.819,0.7
262,858.102,0.22619
263,859.38,0.383333
264,860.653,0.821429
265,861.92,0.4
266,863.182,0.755102
267,864.439,0.829787
268,865.69,0.318841
269,866.936,0.154762
270,868.177,0.064103
271,869.412,0.676923
272,870.642,0.453608
273,871.867,0.338462
274,873.087,0.642857
275,874.302,1.0
276,875.512,0.152778
277,876.716,0.661017
278,877.916,0.535211
279,879.11,0.175
280,880.299,0.878049
281,881.483,-0.020833
282,882.663,0.128205
283,883.837,0.291667
284,885.006,1.473684
285,886.17,0.820513
286,887.33,0.318182
287,888.484,0.357143
