,Wavelength[nm],Average
0,320.469,-0.5
1,323.166,0.298969
2,325.861,0.393939
3,328.553,0.763636
4,331.243,0.31746
5,333.93,0.5
6,336.615,0.286885
7,339.297,0.075949
8,341.976,0.202532
9,344.653,0.777778
10,347.327,0.270833
11,349.998,0.207547
12,352.666,0.805556
13,355.331,0.690141
14,357.994,1.053333
15,360.653,0.214286
16,363.309,0.574074
17,365.962,0.39759
18,368.612,0.040541
19,371.259,0.319588
20,373.903,0.719298
21,376.543,0.315789
22,379.18,0.280899
23,381.813,0.474576
24,384.443,0.288889
25,387.07,0.474576
26,389.693,0.932432
27,392.313,0.711538
28,394.929,0.441558
29,397.541,0.585366
30,400.15,0.433333
31,402.755,0.346535
32,405.356,0.469388
33,407.954,0.318584
34,410.547,0.360656
35,413.137,0.642857
36,415.723,0.493671
37,418.305,0.511628
38,420.883,0.355649
39,423.457,0.324138
40,426.027,0.343049
41,428.593,0.340351
42,431.154,0.334091
43,433.712,0.348498
44,436.265,0.30788
45,438.814,0.317308
46,441.359,0.313671
47,443.9,0.328165
48,446.436,0.327495
49,448.967,0.326837
50,451.495,0.327105
51,454.018,0.327173
52,456.536,0.328322
53,459.05,0.333654
54,461.559,0.33198
55,464.064,0.346188
56,466.564,0.346067
57,469.06,0.346628
58,471.551,0.344114
59,474.037,0.344403
60,476.518,0.353185
61,478.995,0.360917
62,481.467,0.366818
63,483.934,0.355685
64,486.396,0.35533
65,488.853,0.368034
66,491.305,0.368964
67,493.753,0.368792
68,496.195,0.370622
69,498.632,0.367369
70,501.065,0.363251
71,503.492,0.370542
72,505.914,0.384274
73,508.332,0.374077
74,510.743,0.376251
75,513.15,0.388549
76,515.552,0.388321
77,517.948,0.402116
78,520.339,0.397749
79,522.725,0.398713
80,525.106,0.402944
81,527.481,0.407568
82,529.851,0.406851
83,532.216,0.412414
84,534.575,0.409706
85,536.929,0.412712
86,539.277,0.40992
87,541.62,0.418301
88,543.957,0.421746
89,546.289,0.418899
90,548.616,0.422357
91,550.936,0.416534
92,553.252,0.410359
93,555.561,0.419241
94,557.865,0.417898
95,560.164,0.420594
96,562.457,0.419684
97,564.744,0.424885
98,567.025,0.425026
99,569.301,0.429774
100,571.571,0.431288
101,573.835,0.430065
102,576.093,0.438694
103,578.346,0.436129
104,580.593,0.439658
105,582.834,0.438108
106,585.069,0.443798
107,587.299,0.445718
108,589.522,0.449555
109,591.74,0.456213
110,593.952,0.448569
111,596.158,0.449202
112,598.358,0.445083
113,600.551,0.448214
114,602.739,0.446337
115,604.922,0.428548
116,607.098,0.43115
117,609.268,0.4337
118,611.432,0.431224
119,613.59,0.424111
120,615.742,0.422103
121,617.887,0.427797
122,620.027,0.427228
123,622.161,0.423743
124,624.289,0.431266
125,626.41,0.423077
126,628.526,0.426386
127,630.635,0.421979
128,632.738,0.429357
129,634.835,0.420274
130,636.926,0.420531
131,639.011,0.414918
132,641.089,0.418549
133,643.162,0.428442
134,645.228,0.429705
135,647.288,0.428257
136,649.341,0.425103
137,651.389,0.423403
138,653.43,0.430975
139,655.465,0.437368
140,657.494,0.431745
141,659.516,0.425147
142,661.532,0.431272
143,663.542,0.441817
144,665.546,0.430901
145,667.543,0.437644
146,669.535,0.447563
147,671.519,0.463063
148,673.498,0.455575
149,675.47,0.428495
150,677.436,0.449943
151,679.396,0.455981
152,681.349,0.443937
153,683.296,0.450709
154,685.236,0.456245
155,687.171,0.479192
156,689.099,0.47094
157,691.02,0.458093
158,692.935,0.474092
159,694.844,0.50026
160,696.747,0.452728
161,698.643,0.443804
162,700.533,0.463066
163,702.416,0.476913
164,704.293,0.467384
165,706.164,0.486047
166,708.029,0.498017
167,709.887,0.456727
168,711.738,0.495292
169,713.584,0.487412
170,715.423,0.443601
171,717.255,0.482873
172,719.082,0.480916
173,720.901,0.469038
174,722.715,0.541779
175,724.522,0.514483
176,726.323,0.514469
177,728.117,0.555732
178,729.905,0.493805
179,731.687,0.494275
180,733.462,0.495851
181,735.232,0.479821
182,736.994,0.546512
183,738.751,0.413395
184,740.501,0.484108
185,742.244,0.505025
186,743.982,0.51952
187,745.713,0.547826
188,747.437,0.582803
189,749.156,0.479592
190,750.868,0.588652
191,752.573,0.522556
192,754.273,0.490196
193,755.966,0.643172
194,757.653,0.495413
195,759.333,0.471963
196,761.008,0.550239
197,762.676,0.603448
198,764.337,0.671141
199,765.993,0.531034
200,767.642,0.4875
201,769.285,0.806202
202,770.922,0.496454
203,772.552,0.445783
204,774.176,0.577181
205,775.795,0.515385
206,777.406,0.464912
207,779.012,0.365854
208,780.611,0.357143
209,782.205,0.285714
210,783.792,0.203252
211,785.373,0.318182
212,786.947,0.634146
213,788.516,0.329268
214,790.078,0.345679
215,791.635,0.614286
216,793.185,0.328358
217,794.729,0.714286
218,796.267,0.485981
219,797.799,0.646154
220,799.325,0.736111
221,800.844,0.44
222,802.358,0.390805
223,803.866,0.4625
224,805.368,0.407407
225,806.863,0.46789
226,808.353,0.168831
227,809.836,1.818182
228,811.314,0.084746
229,812.786,0.0
230,814.252,0.656716
231,815.711,0.818182
232,817.165,-0.152542
233,818.613,-0.012346
234,820.055,0.21978
235,821.491,0.722892
236,822.922,0.544444
237,824.346,0.180556
238,825.765,0.451219
239,827.178,1.0
240,828.585,0.609756
241,829.986,0.592593
242,831.381,0.5
243,832.771,0.354167
244,834.155,0.741176
245,835.533,0.448718
246,836.906,0.275
247,838.272,0.487805
248,839.633,0.462687
249,840.989,0.388235
250,842.339,0.244444
251,843.683,0.381443
252,845.021,0.703125
253,846.354,0.711864
254,847.682,0.120482
255,849.004,0.488372
256,850.32,0.612903
257,851.631,0.242424
258,852.936,0.016129
259,854.236,0.467532
260,855.53,0.3
261,856.819,0.0
262,858.102,0.345238
263,859.38,-0.016667
264,860.653,0.464286
265,861.92,0.011111
266,863.182,0.714286
267,864.439,0.702128
268,865.69,0.565217
269,866.936,0.238095
270,868.177,0.576923
271,869.412,0.307692
272,870.642,0.237113
273,871.867,0.446154
274,873.087,0.357143
275,874.302,0.578947
276,875.512,0.291667
277,876.716,0.101695
278,877.916,0.084507
279,879.11,0.4875
280,880.299,0.682927
281,881.483,0.4375
282,882.663,-0.038462
283,883.837,0.354167
284,885.006,0.473684
285,886.17,0.794872
286,887.33,0.636364
287,888.484,0.257143
