,Wavelength[nm],Average
0,320.469,0.818182
1,323.166,1.62963
2,325.861,7.727273
3,328.553,2.678571
4,331.243,1.188679
5,333.93,-8.0
6,336.615,0.326087
7,339.297,0.894737
8,341.976,1.871795
9,344.653,1.72549
10,347.327,0.965517
11,349.998,0.986842
12,352.666,8.714286
13,355.331,0.541667
14,357.994,1.017857
15,360.653,1.146341
16,363.309,-11.0
17,365.962,0.926829
18,368.612,1.848485
19,371.259,1.653846
20,373.903,1.02
21,376.543,1.020833
22,379.18,1.027778
23,381.813,1.9
24,384.443,0.605263
25,387.07,2.5625
26,389.693,0.541667
27,392.313,1.638889
28,394.929,1.188679
29,397.541,0.714286
30,400.15,0.557143
31,402.755,1.651163
32,405.356,1.403226
33,407.954,0.642857
34,410.547,0.491803
35,413.137,0.821705
36,415.723,0.923077
37,418.305,0.583333
38,420.883,0.71028
39,423.457,0.720982
40,426.027,0.557632
41,428.593,0.512195
42,431.154,0.517241
43,433.712,0.536105
44,436.265,0.528411
45,438.814,0.542225
46,441.359,0.524036
47,443.9,0.521338
48,446.436,0.507992
49,448.967,0.505773
50,451.495,0.496849
51,454.018,0.490919
52,456.536,0.487878
53,459.05,0.499929
54,461.559,0.516274
55,464.064,0.51145
56,466.564,0.510314
57,469.06,0.520833
58,471.551,0.517772
59,474.037,0.532009
60,476.518,0.527593
61,478.995,0.523278
62,481.467,0.547454
63,483.934,0.565599
64,486.396,0.535706
65,488.853,0.542608
66,491.305,0.551687
67,493.753,0.537086
68,496.195,0.559298
69,498.632,0.581367
70,501.065,0.558578
71,503.492,0.570368
72,505.914,0.56792
73,508.332,0.573496
74,510.743,0.565444
75,513.15,0.582307
76,515.552,0.59396
77,517.948,0.602351
78,520.339,0.605586
79,522.725,0.61495
80,525.106,0.599303
81,527.481,0.612006
82,529.851,0.608255
83,532.216,0.601053
84,534.575,0.61626
85,536.929,0.614678
86,539.277,0.591042
87,541.62,0.623347
88,543.957,0.610615
89,546.289,0.620578
90,548.616,0.609958
91,550.936,0.614698
92,553.252,0.628408
93,555.561,0.633832
94,557.865,0.616053
95,560.164,0.637645
96,562.457,0.64071
97,564.744,0.624527
98,567.025,0.633469
99,569.301,0.630821
100,571.571,0.62766
101,573.835,0.641932
102,576.093,0.656299
103,578.346,0.653147
104,580.593,0.662179
105,582.834,0.652617
106,585.069,0.664489
107,587.299,0.661206
108,589.522,0.680363
109,591.74,0.671499
110,593.952,0.664461
111,596.158,0.673587
112,598.358,0.661093
113,600.551,0.657045
114,602.739,0.650177
115,604.922,0.649774
116,607.098,0.646145
117,609.268,0.644873
118,611.432,0.638049
119,613.59,0.644817
120,615.742,0.632191
121,617.887,0.613199
122,620.027,0.609579
123,622.161,0.614628
124,624.289,0.603763
125,626.41,0.602006
126,628.526,0.597461
127,630.635,0.605325
128,632.738,0.598913
129,634.835,0.623578
130,636.926,0.626821
131,639.011,0.60213
132,641.089,0.604613
133,643.162,0.619501
134,645.228,0.60999
135,647.288,0.607606
136,649.341,0.613801
137,651.389,0.599818
138,653.43,0.625759
139,655.465,0.624008
140,657.494,0.617473
141,659.516,0.631762
142,661.532,0.632603
143,663.542,0.607234
144,665.546,0.6295
145,667.543,0.622367
146,669.535,0.626538
147,671.519,0.657841
148,673.498,0.645132
149,675.47,0.660546
150,677.436,0.638393
151,679.396,0.665229
152,681.349,0.670983
153,683.296,0.668335
154,685.236,0.66986
155,687.171,0.65857
156,689.099,0.648788
157,691.02,0.658692
158,692.935,0.703795
159,694.844,0.702933
160,696.747,0.68295
161,698.643,0.675
162,700.533,0.671277
163,702.416,0.726636
164,704.293,0.675277
165,706.164,0.789986
166,708.029,0.774524
167,709.887,0.707937
168,711.738,0.743307
169,713.584,0.674304
170,715.423,0.800774
171,717.255,0.773931
172,719.082,0.748479
173,720.901,0.710359
174,722.715,0.819095
175,724.522,0.727749
176,726.323,0.738162
177,728.117,0.705357
178,729.905,0.95679
179,731.687,0.981203
180,733.462,0.821678
181,735.232,0.870849
182,736.994,0.804878
183,738.751,0.763158
184,740.501,0.990196
185,742.244,0.991031
186,743.982,0.865169
187,745.713,0.835821
188,747.437,0.845361
189,749.156,0.831325
190,750.868,1.035211
191,752.573,1.094017
192,754.273,0.85625
193,755.966,1.013605
194,757.653,0.907407
195,759.333,0.992063
196,761.008,1.195402
197,762.676,1.078947
198,764.337,0.87037
199,765.993,1.206349
200,767.642,0.872549
201,769.285,1.544118
202,770.922,0.719512
203,772.552,1.75
204,774.176,0.428571
205,775.795,2.036364
206,777.406,2.675676
207,779.012,0.823529
208,780.611,0.428571
209,782.205,0.579545
210,783.792,1.333333
211,785.373,1.088889
212,786.947,0.116667
213,788.516,0.507042
214,790.078,2.35
215,791.635,0.923077
216,793.185,0.377358
217,794.729,0.80303
218,796.267,3.033333
219,797.799,1.724138
220,799.325,1.510204
221,800.844,1.875
222,802.358,0.933333
223,803.866,0.66
224,805.368,1.285714
225,806.863,3.314286
226,808.353,0.904762
227,809.836,0.914894
228,811.314,12.666667
229,812.786,1.483871
230,814.252,1.868421
231,815.711,17.0
232,817.165,0.723684
233,818.613,0.829268
234,820.055,1.16129
235,821.491,1.488372
236,822.922,2.0
237,824.346,1.0
238,825.765,2.869565
239,827.178,1.292683
240,828.585,0.815789
241,829.986,1.302326
242,831.381,2.375
243,832.771,2.521739
244,834.155,45.0
245,835.533,0.666667
246,836.906,1.162791
247,838.272,1.125
248,839.633,-4.125
249,840.989,1.972973
250,842.339,0.693878
251,843.683,0.895833
252,845.021,6.0
253,846.354,0.910714
254,847.682,1.5
255,849.004,1.657143
256,850.32,2.0
257,851.631,1.088889
258,852.936,1.0
259,854.236,0.571429
260,855.53,5.176471
261,856.819,1.255319
262,858.102,1.714286
263,859.38,0.916667
264,860.653,0.892857
265,861.92,1.837838
266,863.182,1.342105
267,864.439,1.702703
268,865.69,4.611111
269,866.936,2.666667
270,868.177,7.714286
271,869.412,9.285714
272,870.642,1.166667
273,871.867,1.625
274,873.087,17.75
275,874.302,1.034483
276,875.512,2.846154
277,876.716,0.923077
278,877.916,-0.166667
279,879.11,0.757576
280,880.299,4.0
281,881.483,-12.75
282,882.663,0.810811
283,883.837,3.384615
284,885.006,2.73913
285,886.17,6.6
286,887.33,2.0
287,888.484,-8.5
