,Wavelength[nm],Average
0,320.469,-0.454545
1,323.166,1.740741
2,325.861,5.636364
3,328.553,1.392857
4,331.243,1.037736
5,333.93,-11.6
6,336.615,0.956522
7,339.297,1.070175
8,341.976,0.641026
9,344.653,0.745098
10,347.327,0.568965
11,349.998,0.618421
12,352.666,7.428571
13,355.331,0.847222
14,357.994,0.892857
15,360.653,0.804878
16,363.309,-14.25
17,365.962,1.04878
18,368.612,1.030303
19,371.259,0.846154
20,373.903,1.08
21,376.543,0.75
22,379.18,1.638889
23,381.813,3.2
24,384.443,1.842105
25,387.07,3.3125
26,389.693,0.666667
27,392.313,1.222222
28,394.929,1.056604
29,397.541,0.607143
30,400.15,1.071429
31,402.755,1.372093
32,405.356,1.112903
33,407.954,0.755102
34,410.547,0.885246
35,413.137,0.937984
36,415.723,1.192308
37,418.305,0.775362
38,420.883,0.922118
39,423.457,0.928571
40,426.027,0.833333
41,428.593,0.822616
42,431.154,0.86442
43,433.712,0.821116
44,436.265,0.833011
45,438.814,0.825635
46,441.359,0.841147
47,443.9,0.831822
48,446.436,0.819206
49,448.967,0.799673
50,451.495,0.784684
51,454.018,0.781952
52,456.536,0.782929
53,459.05,0.804252
54,461.559,0.815406
55,464.064,0.80302
56,466.564,0.799641
57,469.06,0.80754
58,471.551,0.806025
59,474.037,0.820794
60,476.518,0.806137
61,478.995,0.834869
62,481.467,0.838394
63,483.934,0.84484
64,486.396,0.864109
65,488.853,0.866249
66,491.305,0.87249
67,493.753,0.874255
68,496.195,0.903246
69,498.632,0.900585
70,501.065,0.903827
71,503.492,0.923634
72,505.914,0.938965
73,508.332,0.930828
74,510.743,0.945246
75,513.15,0.977071
76,515.552,0.974161
77,517.948,0.974535
78,520.339,0.994511
79,522.725,1.000942
80,525.106,0.995152
81,527.481,1.000887
82,529.851,1.005427
83,532.216,0.993351
84,534.575,1.008363
85,536.929,1.00473
86,539.277,0.984404
87,541.62,1.005803
88,543.957,0.9992
89,546.289,0.992603
90,548.616,0.993081
91,550.936,1.007967
92,553.252,1.017251
93,555.561,1.011083
94,557.865,1.008413
95,560.164,1.020868
96,562.457,1.01735
97,564.744,1.002701
98,567.025,1.010298
99,569.301,1.019919
100,571.571,1.017862
101,573.835,1.030886
102,576.093,1.042126
103,578.346,1.051945
104,580.593,1.05641
105,582.834,1.057247
106,585.069,1.071097
107,587.299,1.051005
108,589.522,1.076506
109,591.74,1.06109
110,593.952,1.073274
111,596.158,1.046806
112,598.358,1.031383
113,600.551,1.041286
114,602.739,1.028878
115,604.922,1.036479
116,607.098,1.012386
117,609.268,1.019553
118,611.432,1.017561
119,613.59,0.995834
120,615.742,0.988994
121,617.887,0.962536
122,620.027,0.973574
123,622.161,0.977979
124,624.289,0.962231
125,626.41,0.967853
126,628.526,0.952468
127,630.635,0.951141
128,632.738,0.941407
129,634.835,0.950379
130,636.926,0.966516
131,639.011,0.950524
132,641.089,0.960894
133,643.162,0.964197
134,645.228,0.97023
135,647.288,0.975136
136,649.341,0.962103
137,651.389,0.94901
138,653.43,0.986877
139,655.465,0.971845
140,657.494,0.975538
141,659.516,0.984958
142,661.532,0.964804
143,663.542,0.95717
144,665.546,0.980776
145,667.543,0.966594
146,669.535,0.971538
147,671.519,0.98167
148,673.498,1.017497
149,675.47,0.992938
150,677.436,0.956845
151,679.396,0.97628
152,681.349,1.022366
153,683.296,1.04005
154,685.236,0.987867
155,687.171,1.024983
156,689.099,0.997061
157,691.02,0.995215
158,692.935,1.011551
159,694.844,1.080416
160,696.747,1.024904
161,698.643,0.976
162,700.533,0.996809
163,702.416,0.994159
164,704.293,0.98647
165,706.164,1.057024
166,708.029,1.079063
167,709.887,1.079365
168,711.738,0.968504
169,713.584,0.96072
170,715.423,1.092843
171,717.255,1.126273
172,719.082,1.0
173,720.901,0.87315
174,722.715,1.035176
175,724.522,1.086387
176,726.323,1.013928
177,728.117,0.96131
178,729.905,0.925926
179,731.687,1.180451
180,733.462,1.115385
181,735.232,1.01845
182,736.994,1.065041
183,738.751,0.977444
184,740.501,1.245098
185,742.244,1.053812
186,743.982,1.095506
187,745.713,0.920398
188,747.437,0.793814
189,749.156,1.006024
190,750.868,1.105634
191,752.573,1.384615
192,754.273,0.88125
193,755.966,0.693878
194,757.653,1.092593
195,759.333,0.896825
196,761.008,1.252874
197,762.676,0.798246
198,764.337,1.046296
199,765.993,1.984127
200,767.642,0.813725
201,769.285,0.852941
202,770.922,1.134146
203,772.552,1.583333
204,774.176,0.78022
205,775.795,1.363636
206,777.406,1.405405
207,779.012,2.147059
208,780.611,0.630952
209,782.205,0.75
210,783.792,0.487179
211,785.373,1.488889
212,786.947,0.833333
213,788.516,0.28169
214,790.078,2.0
215,791.635,0.653846
216,793.185,0.679245
217,794.729,0.80303
218,796.267,2.133333
219,797.799,1.413793
220,799.325,0.918367
221,800.844,1.375
222,802.358,0.633333
223,803.866,0.92
224,805.368,1.714286
225,806.863,0.457143
226,808.353,1.02381
227,809.836,0.723404
228,811.314,9.333333
229,812.786,1.516129
230,814.252,0.315789
231,815.711,12.25
232,817.165,0.394737
233,818.613,0.609756
234,820.055,0.516129
235,821.491,0.976744
236,822.922,3.041667
237,824.346,0.530612
238,825.765,2.130435
239,827.178,1.146341
240,828.585,1.026316
241,829.986,1.325581
242,831.381,2.0625
243,832.771,2.173913
244,834.155,42.0
245,835.533,2.0
246,836.906,0.860465
247,838.272,0.785714
248,839.633,-6.375
249,840.989,1.351351
250,842.339,1.795918
251,843.683,1.354167
252,845.021,2.909091
253,846.354,0.589286
254,847.682,1.421053
255,849.004,1.028571
256,850.32,1.730769
257,851.631,1.177778
258,852.936,0.983607
259,854.236,1.171429
260,855.53,1.235294
261,856.819,1.212766
262,858.102,0.738095
263,859.38,0.770833
264,860.653,1.571429
265,861.92,1.0
266,863.182,1.210526
267,864.439,1.594595
268,865.69,0.888889
269,866.936,0.962963
270,868.177,5.714286
271,869.412,6.142857
272,870.642,0.533333
273,871.867,0.46875
274,873.087,15.75
275,874.302,1.241379
276,875.512,3.461539
277,876.716,2.038461
278,877.916,2.833333
279,879.11,0.530303
280,880.299,1.5625
281,881.483,-9.25
282,882.663,0.567568
283,883.837,0.384615
284,885.006,1.217391
285,886.17,7.8
286,887.33,0.833333
287,888.484,0.5
